B.E.(eV)           Raw Intensity       Peak Sum            Background          Peak 1              Peak 2              Peak 3              Peak 4              difference
 410.62             7247.23             7274.493            7247.23             7253.152            7254.672            7253.404            7254.955           -27.26318 
 410.52             7321.44             7275.024            7247.23             7253.256            7254.812            7253.526            7255.121            46.41553 
 410.42             7178.77             7275.521            7247.181            7253.313            7254.905            7253.603            7255.243           -96.75146 
 410.32             7383.23             7276.129            7247.226            7253.468            7255.098            7253.778            7255.464            107.1006 
 410.22             7440.02             7276.619            7247.136            7253.49             7255.159            7253.821            7255.557            163.4014 
 410.12             7568.27             7277.088            7247.008            7253.478            7255.187            7253.831            7255.617            291.1816 
 410.02             7358.87             7277.491            7246.794            7253.383            7255.133            7253.759            7255.599            81.37939 
 409.92             7533.22             7278.051            7246.72             7253.43             7255.224            7253.832            7255.726            255.1689 
 409.82             7461.81             7278.517            7246.53             7253.366            7255.205            7253.793            7255.745            183.293 
 409.72             7431.87             7279.049            7246.387            7253.352            7255.236            7253.806            7255.817            152.8208 
 409.62             7430.41             7279.624            7246.264            7253.361            7255.294            7253.844            7255.918            150.7861 
 409.52             7385.71             7280.223            7246.142            7253.375            7255.358            7253.888            7256.027            105.4873 
 409.42             7248.45             7280.874            7246.049            7253.423            7255.457            7253.967            7256.174           -32.42334 
 409.32             7605.79             7281.641            7246.048            7253.566            7255.654            7254.144            7256.421            324.1489 
 409.22             7329.25             7282.197            7245.809            7253.476            7255.619            7254.089            7256.44             47.05322 
 409.12             7354.3              7282.963            7245.754            7253.574            7255.775            7254.224            7256.653            71.33643 
 409.02             7492.72             7283.741            7245.682            7253.659            7255.92             7254.348            7256.858            208.979 
 408.92             7568.1              7284.456            7245.518            7253.658            7255.981            7254.388            7256.982            283.644 
 408.82             7283.81             7285.153            7245.304            7253.612            7256                7254.385            7257.068           -1.343262 
 408.72             7477.84             7286.071            7245.278            7253.759            7256.214            7254.578            7257.354            191.769 
 408.62             7291.16             7286.893            7245.124            7253.783            7256.308            7254.649            7257.524            4.26709 
 408.52             7624.43             7287.875            7245.093            7253.937            7256.534            7254.854            7257.831            336.5547 
 408.42             7533.36             7288.673            7244.841            7253.874            7256.548            7254.846            7257.929            244.687 
 408.32             7466.91             7289.571            7244.65             7253.879            7256.632            7254.907            7258.104            177.3389 
 408.22             7239.29             7290.555            7244.502            7253.934            7256.77             7255.022            7258.337           -51.26514 
 408.12             7371.76             7291.732            7244.506            7254.146            7257.068            7255.298            7258.738            80.02734 
 408.02             7410.2              7292.869            7244.421            7254.278            7257.29             7255.497            7259.068            117.3315 
 407.92             7629.11             7294.027            7244.312            7254.392            7257.497            7255.682            7259.391            335.083 
 407.82             7361.46             7295.09             7244.056            7254.368            7257.571            7255.733            7259.587            66.36963 
 407.72             7338.36             7296.385            7243.978            7254.529            7257.834            7255.974            7259.982            41.9751 
 407.62             7392.71             7297.751            7243.916            7254.714            7258.126            7256.244            7260.414            94.9585 
 407.52             7649.55             7299.142            7243.817            7254.872            7258.396            7256.491            7260.833            350.4082 
 407.42             7853.5              7300.424            7243.548            7254.869            7258.51             7256.583            7261.105            553.0762 
 407.32             7731.77             7301.637            7243.143            7254.739            7258.503            7256.555            7261.268            430.1333 
 407.22             7661.78             7303.001            7242.818            7254.7              7258.593            7256.624            7261.539            358.7788 
 407.12             7521.35             7304.487            7242.541            7254.718            7258.747            7256.757            7261.887            216.8633 
 407.02             7643.74             7306.145            7242.355            7254.841            7259.011            7257.001            7262.358            337.5957 
 406.92             7223.19             7307.804            7242.089            7254.893            7259.212            7257.183            7262.782           -84.61426 
 406.82             7610.93             7309.832            7242.102            7255.237            7259.713            7257.666            7263.521            301.0981 
 406.72             7698.1              7311.699            7241.857            7255.337            7259.978            7257.913            7264.042            386.4014 
 406.62             7697.98             7313.608            7241.554            7255.393            7260.207            7258.126            7264.545            384.3721 
 406.52             7588.77             7315.624            7241.251            7255.462            7260.458            7258.364            7265.092            273.146 
 406.42             7890.76             7317.827            7241.021            7255.62             7260.808            7258.701            7265.76             572.9331 
 406.32             7839.24             7319.952            7240.589            7255.592            7260.984            7258.866            7266.278            519.2881 
 406.22             7709.53             7322.242            7240.192            7255.616            7261.222            7259.096            7266.885            387.2881 
 406.12             7698.53             7324.758            7239.881            7255.743            7261.576            7259.444            7267.637            373.772 
 406.02             8009.32             7327.429            7239.576            7255.896            7261.969            7259.834            7268.459            681.8906 
 405.92             7758.35             7330.056            7239.065            7255.863            7262.189            7260.056            7269.144            428.2944 
 405.82             7663.69             7333.021            7238.721            7256.017            7262.612            7260.483            7270.07             330.6689 
 405.72             7784.65             7336.234            7238.439            7256.256            7263.137            7261.017            7271.14             448.416 
 405.62             7537.09             7339.566            7238.076            7256.439            7263.622            7261.517            7272.217            197.5234 
 405.52             7815.83             7343.278            7237.878            7256.811            7264.316            7262.231            7273.554            472.5518 
 405.42             7577.82             7347.036            7237.494            7257.024            7264.872            7262.813            7274.81             230.7837 
 405.32             7320.53             7351.205            7237.269            7257.425            7265.636            7263.612            7276.337           -30.6748 
 405.22             7383.85             7355.816            7237.213            7258.026            7266.626            7264.646            7278.159            28.03418 
 405.12             7716.41             7360.68             7237.116            7258.617            7267.632            7265.705            7280.075            355.73 
 405.02             7328.63             7365.646            7236.798            7259.022            7268.48             7266.617            7281.919           -37.01563 
 404.92             7264.91             7371.216            7236.737            7259.721            7269.654            7267.867            7284.185           -106.3062 
 404.82             7592.2              7377.215            7236.718            7260.502            7270.943            7269.249            7286.676            214.9854 
 404.72             7470.56             7383.416            7236.482            7261.109            7272.094            7270.508            7289.152            87.14453 
 404.62             7346.47             7390.158            7236.327            7261.841            7273.411            7271.953            7291.935           -43.68799 
 404.52             7258.27             7397.492            7236.254            7262.704            7274.903            7273.595            7295.052           -139.2217 
 404.42             7485.83             7405.445            7236.239            7263.677            7276.554            7275.421            7298.511            80.38477 
 404.32             7416.35             7413.877            7236.074            7264.555            7278.165            7277.235            7302.144            2.473145 
 404.22             7308.85             7423.056            7235.954            7265.54             7279.94             7279.248            7306.19            -114.2056 
 404.12             7555.64             7433.092            7235.906            7266.661            7281.917            7281.5              7310.731            122.5479 
 404.02             7631.44             7443.853            7235.693            7267.688            7283.872            7283.776            7315.597            187.5869 
 403.92             7595.93             7455.567            7235.431            7268.741            7285.931            7286.208            7320.979            140.3633 
 403.82             7459.41             7468.456            7235.191            7269.899            7288.186            7288.894            7327.051           -9.045898 
 403.72             7485.27             7482.75             7235.043            7271.238            7290.72             7291.929            7333.992            2.52002 
 403.62             7510.87             7498.534            7234.877            7272.656            7293.444            7295.235            7341.83             12.33643 
 403.52             7516.25             7516.035            7234.693            7274.161            7296.379            7298.847            7350.728            0.2148438 
 403.42             7497.44             7535.525            7234.507            7275.778            7299.564            7302.82             7360.883           -38.08496 
 403.32             7584.09             7557.333            7234.332            7277.533            7303.044            7307.218            7372.534            26.75635 
 403.22             7508.16             7581.732            7234.1              7279.367            7306.781            7312.028            7385.856           -73.57178 
 403.12             7725.66             7609.217            7233.918            7281.402            7310.919            7317.42             7401.23             116.4434 
 403.02             7673.47             7640.028            7233.592            7283.458            7315.304            7323.278            7418.764            33.44189 
 402.92             7684.15             7674.813            7233.3              7285.728            7320.164            7329.869            7438.951            9.337402 
 402.82             8210.62             7714.072            7233.001            7288.193            7325.516            7337.264            7462.102            496.5483 
 402.72             7755.35             7758.01             7232.352            7290.529            7331.08             7345.248            7488.209           -2.660156 
 402.62             7641.46             7807.875            7232.005            7293.413            7337.585            7354.631            7518.26            -166.4146 
 402.52             7793.5              7864.057            7231.733            7296.645            7344.895            7365.384            7552.334           -70.55713 
 402.42             7817.61             7927.002            7231.36             7300.079            7352.933            7377.572            7590.499           -109.3921 
 402.32             8197.13             7997.477            7230.971            7303.836            7361.917            7391.606            7633.032            199.6528 
 402.22             7845.84             8075.869            7230.33             7307.722            7371.755            7407.664            7679.718           -230.0293 
 402.12             8239.25             8163.273            7229.922            7312.269            7383.112            7426.792            7730.865            75.97705 
 402.02             8609.91             8259.746            7229.252            7317.036            7395.71             7449.261            7785.496            350.1641 
 401.92             8702.03             8365.73             7228.336            7322.102            7409.826            7476.119            7842.691            336.2998 
 401.82             8477.8              8481.803            7227.357            7327.728            7425.982            7508.983            7901.181           -4.00293 
 401.72             8357.58             8608.342            7226.528            7334.216            7444.809            7549.943            7958.958           -250.7617 
 401.62             8578.47             8745.422            7225.777            7341.602            7466.784            7601.367            8013               -166.9521 
 401.52             8658.98             8893.14             7224.88             7349.793            7492.417            7666.067            8059.502           -234.1592 
 401.42             8868.05             9052.49             7223.928            7359.042            7522.791            7747.719            8094.722           -184.4404 
 401.32             9405.72             9225.709            7222.837            7369.479            7559.225            7850.334            8115.181            180.0107 
 401.22             9500.05             9416.665            7221.388            7381.146            7603.413            7977.88             8118.39             83.38477 
 401.12             9714.56             9632.002            7219.876            7394.679            7658.281            8134.536            8104.133            82.55762 
 401.02             10078.9             9879.727            7218.221            7410.439            7727.272            8322.969            8073.708            199.1738 
 400.92             10313.1             10167.82            7216.322            7428.894            7814.813            8543.164            8029.921            145.2754 
 400.82             10769.9             10501.63            7214.267            7450.871            7926.665            8790.36             7976.531            268.2725 
 400.72             10701.2             10878.05            7211.907            7477.147            8069.225            9050.219            7917.18            -176.8486 
 400.62             11041.4             11281.33            7209.592            7509.213            8249.974            9295.381            7855.533           -239.9248 
 400.52             11900.4             11680.57            7207.049            7548.179            8475.638            9483.977            7793.921            219.833 
 400.42             12152.6             12039.92            7203.934            7595.297            8751.41             9571.143            7733.871            112.6797 
 400.32             12156.5             12339.85            7200.65             7652.82             9079.932            9532.092            7676.956           -183.3486 
 400.22             12713.9             12587.89            7197.361            7722.861            9455.777            9377.284            7624.052            126.0098 
 400.12             12812.1             12805.1             7193.7              7807.051            9858.724            9145.303            7575.119            7.003906 
 400.02             12879.5             12996.14            7189.972            7907.572            10246.41            8881.54             7530.529           -116.6387 
 399.92             13250.8             13128.51            7186.196            8025.905            10550.58            8620.405            7490.21             122.293 
 399.82             13214.6             13145.71            7182.171            8162.649            10694.65            8381.203            7453.723            68.88574 
 399.72             12929.1             13010.51            7178.168            8317.343            10633.86            8172.737            7421.067           -81.40625 
 399.62             12597.6             12739.19            7174.352            8487.01             10386.26            7996.886            7392.085           -141.5869 
 399.52             12699.9             12390.29            7170.752            8664.669            10019.56            7851.846            7366.466            309.6123 
 399.42             12235.1             12023.18            7167.083            8837.583            9609.415            7733.85             7343.588            211.915 
 399.32             11681.1             11670.08            7163.72             8987.947            9210.746            7639.063            7323.482            11.02344 
 399.22             11067.9             11334.01            7160.722            9093.844            8853.01             7563.42             7305.901           -266.1074 
 399.12             10887.7             11002.54            7158.129            9135.911            8547.283            7503.136            7290.596           -114.8369 
