B.E.(eV)           Raw Intensity       Peak Sum            Background          Peak 1              Peak 2              Peak 3              Peak 4              difference
 410.61             7007.26             7030.914            7007.26             7013.463            7014.024            7012.92             7012.286           -23.6543 
 410.51             7143.77             7031.369            7007.26             7013.573            7014.15             7013.033            7012.392            112.4014 
 410.41             7069.62             7031.564            7006.987            7013.412            7014.008            7012.876            7012.229            38.05566 
 410.31             6877.89             7031.921            7006.862            7013.402            7014.017            7012.87             7012.218           -154.0308 
 410.21             6947.67             7032.675            7007.12             7013.778            7014.412            7013.251            7012.593           -85.00488 
 410.11             7015.93             7033.304            7007.238            7014.018            7014.672            7013.496            7012.833           -17.37402 
 410.01             6919.81             7033.813            7007.221            7014.125            7014.801            7013.609            7012.94            -114.0034 
 409.91             7078.54             7034.53             7007.396            7014.428            7015.126            7013.919            7013.244            44.00977 
 409.81             7342.14             7034.948            7007.253            7014.418            7015.139            7013.916            7013.235            307.1919 
 409.71             7331.27             7034.856            7006.584            7013.885            7014.629            7013.391            7012.705            296.4136 
 409.61             7143.2              7034.803            7005.936            7013.375            7014.145            7012.891            7012.199            108.397 
 409.51             7275.91             7035.144            7005.662            7013.245            7014.04             7012.77             7012.073            240.7666 
 409.41             6953.49             7035.238            7005.122            7012.853            7013.674            7012.388            7011.687           -81.74756 
 409.31             6797.55             7035.996            7005.225            7013.108            7013.958            7012.655            7011.949           -238.4458 
 409.21             7092.95             7037.087            7005.64             7013.68             7014.559            7013.239            7012.529            55.86279 
 409.11             7073.16             7037.613            7005.465            7013.667            7014.576            7013.24             7012.526            35.54736 
 409.01             7168.08             7038.201            7005.33             7013.698            7014.639            7013.286            7012.568            129.8794 
 408.91             6972.55             7038.624            7005.005            7013.543            7014.519            7013.149            7012.427           -66.07422 
 408.81             6875.51             7039.463            7005.07             7013.785            7014.795            7013.408            7012.684           -163.9531 
 408.71             6862.54             7040.522            7005.329            7014.226            7015.273            7013.868            7013.141           -177.9824 
 408.61             6773.74             7041.637            7005.614            7014.699            7015.784            7014.362            7013.633           -267.897 
 408.51             7127.5              7042.96             7006.077            7015.356            7016.481            7015.042            7014.311            84.54004 
 408.41             6955.29             7043.608            7005.834            7015.314            7016.481            7015.024            7014.292           -88.31787 
 408.31             7109.43             7044.632            7005.936            7015.622            7016.833            7015.359            7014.626            64.79785 
 408.21             7278.4              7045.383            7005.729            7015.628            7016.885            7015.394            7014.662            233.0166 
 408.11             7144.63             7045.833            7005.184            7015.305            7016.609            7015.101            7014.37             98.79688 
 408.01             7138.51             7046.586            7004.905            7015.254            7016.609            7015.084            7014.355            91.92334 
 407.91             6693.75             7047.392            7004.639            7015.223            7016.632            7015.089            7014.364           -353.6421 
 407.81             7187.5              7049.127            7005.26             7016.088            7017.553            7015.994            7015.272            138.3726 
 407.71             7228.87             7049.922            7004.896            7015.977            7017.5              7015.924            7015.208            178.9478 
 407.61             7171.93             7050.68             7004.448            7015.791            7017.376            7015.784            7015.075            121.25 
 407.51             7225.56             7051.6              7004.113            7015.727            7017.376            7015.769            7015.068            173.96 
 407.41             6919.36             7052.464            7003.671            7015.564            7017.283            7015.66             7014.969           -133.1045 
 407.31             7057.14             7053.995            7003.839            7016.024            7017.814            7016.177            7015.498            3.145508 
 407.21             6829.65             7055.309            7003.733            7016.219            7018.086            7016.434            7015.769           -225.6592 
 407.11             6962.9              7057.139            7004.081            7016.88             7018.827            7017.162            7016.512           -94.23877 
 407.01             7063                7058.767            7004.163            7017.287            7019.318            7017.641            7017.01             4.23291 
 406.91             7253.71             7060.266            7004.045            7017.507            7019.627            7017.939            7017.329            193.4438 
 406.81             7497.31             7061.457            7003.547            7017.359            7019.574            7017.875            7017.29             435.853 
 406.71             7150.04             7062.238            7002.561            7016.737            7019.052            7017.345            7016.786            87.80225 
 406.61             7325.56             7063.793            7002.266            7016.821            7019.242            7017.527            7017                261.7666 
 406.51             7591.86             7065.085            7001.62             7016.569            7019.102            7017.383            7016.891            526.7749 
 406.41             7399.82             7065.938            7000.441            7015.8              7018.452            7016.729            7016.278            333.8823 
 406.31             7362.77             7067.272            6999.643            7015.43             7018.208            7016.484            7016.079            295.498 
 406.21             7182.87             7068.785            6998.917            7015.15             7018.062            7016.34             7015.985            114.0854 
 406.11             7272.18             7070.77             6998.55             7015.247            7018.301            7016.584            7016.287            201.4106 
 406.01             7250.32             7072.696            6998.003            7015.185            7018.391            7016.682            7016.449            177.6235 
 405.91             7318.82             7074.797            6997.499            7015.187            7018.553            7016.857            7016.696            244.0229 
 405.81             7223.83             7076.9              6996.857            7015.074            7018.612            7016.933            7016.853            146.9297 
 405.71             7147.32             7079.341            6996.404            7015.173            7018.895            7017.237            7017.248            67.97852 
 405.61             7126.06             7082.097            6996.103            7015.45             7019.367            7017.737            7017.85             43.96338 
 405.51             7233.09             7085.065            6995.843            7015.795            7019.921            7018.325            7018.552            148.0244 
 405.41             7402.87             7088.009            6995.369            7015.955            7020.305            7018.75             7019.105            314.8608 
 405.31             7245.97             7090.814            6994.555            7015.806            7020.395            7018.889            7019.389            155.1558 
 405.21             7360.56             7094.15             6994.053            7016                7020.847            7019.399            7020.062            266.4097 
 405.11             7185.71             7097.493            6993.32             7016                7021.123            7019.744            7020.587            88.2168 
 405.01             7106.37             7101.438            6992.936            7016.384            7021.803            7020.506            7021.554            4.931641 
 404.91             7496.71             7105.823            6992.709            7016.966            7022.704            7021.502            7022.779            390.8872 
 404.81             7130.82             7109.73             6991.703            7016.81             7022.892            7021.8              7023.336            21.08936 
 404.71             7158.15             7114.698            6991.425            7017.428            7023.881            7022.917            7024.746            43.45215 
 404.61             7040.99             7119.972            6991.091            7018.039            7024.894            7024.078            7026.235           -78.98145 
 404.51             7003.89             7125.875            6990.992            7018.936            7026.224            7025.58             7028.11            -121.9844 
 404.41             6759.49             7132.287            6990.966            7019.962            7027.721            7027.275            7030.226           -372.7969 
 404.31             7167.76             7139.668            6991.429            7021.538            7029.808            7029.59             7033.019            28.0918 
 404.21             7133.7              7146.761            6991.076            7022.363            7031.188            7031.233            7035.206           -13.06104 
 404.11             7240.78             7154.508            6990.792            7023.326            7032.755            7033.104            7037.697            86.27197 
 404.01             7049.93             7162.686            6990.292            7024.149            7034.237            7034.936            7040.239           -112.7554 
 403.91             7303.57             7171.971            6990.173            7025.436            7036.244            7037.346            7043.465            131.5986 
 403.81             7220.15             7181.561            6989.547            7026.304            7037.9              7039.467            7046.53             38.58936 
 403.71             7171.07             7192.227            6989.086            7027.433            7039.895            7041.999            7050.159           -21.15723 
 403.61             7144                7204.024            6988.723            7028.764            7042.177            7044.901            7054.35            -60.02393 
 403.51             7161.02             7217.048            6988.412            7030.262            7044.722            7048.165            7059.136           -56.02783 
 403.41             7291.45             7231.392            6988.067            7031.85             7047.466            7051.743            7064.535            60.05859 
 403.31             7436.56             7247.035            6987.461            7033.313            7050.209            7055.454            7070.444            189.5249 
 403.21             7138.22             7264.201            6986.564            7034.633            7052.948            7059.321            7076.991           -125.981 
 403.11             7185.34             7284.088            6986.261            7036.711            7056.605            7064.293            7085.262           -98.74854 
 403.01             7378.36             7306.372            6985.863            7038.872            7060.527            7069.755            7094.808            71.98828 
 402.91             7413.8              7331.226            6985.079            7040.846            7064.47             7075.505            7105.642            82.57422 
 402.81             7265.5              7359.494            6984.223            7042.965            7068.798            7081.963            7118.436           -93.99414 
 402.71             7337.5              7392.179            6983.661            7045.621            7073.94             7089.623            7133.978           -54.6792 
 402.61             7391.44             7429.577            6982.954            7048.399            7079.526            7098.2              7152.314           -38.13721 
 402.51             7522.87             7472.558            6982.138            7051.367            7085.672            7107.92             7174.014            50.31201 
 402.41             7592.13             7521.951            6981.058            7054.403            7092.324            7118.875            7199.521            70.1792 
 402.31             7271.12             7578.946            6979.837            7057.671            7099.722            7131.502            7229.563           -307.8262 
 402.21             7612.77             7645.521            6979.255            7061.996            7108.78             7146.991            7265.518           -32.75098 
 402.11             7888.8              7721.675            6977.989            7066.108            7118.344            7164.579            7306.612            167.125 
 402.01             7946.17             7808.965            6976.17             7070.197            7128.74             7185.152            7353.386            137.2051 
 401.91             8098.34             7909.457            6974.232            7074.772            7140.658            7210.21             7406.512            188.8833 
 401.81             7786.39             8024.6              6971.986            7079.728            7154.216            7240.998            7465.617           -238.2095 
 401.71             8318.76             8156.965            6970.359            7086.09             7170.735            7280.367            7530.851            161.7949 
 401.61             8331.8              8306.307            6967.666            7092.296            7189.047            7329.14             7598.82             25.49316 
 401.51             8538.39             8474.572            6964.94             7099.526            7210.872            7391.463            7667.532            63.81738 
 401.41             8553.26             8661.744            6961.797            7107.584            7236.785            7470.716            7732.05            -108.4844 
 401.31             8874.44             8867.783            6958.618            7117.083            7268.475            7571.428            7786.652            6.657227 
 401.21             9082.23             9091.73             6954.791            7127.71             7307.144            7697.277            7823.971           -9.5 
 401.11             9144.61             9334.749            6950.54             7140.079            7355.498            7852.354            7838.438           -190.1387 
 401.01             9698.56             9600.418            6946.157            7154.982            7417.108            8039.377            7827.423            98.1416 
 400.91             9894.41             9893.283            6940.659            7172.107            7495.27             8256.885            7790.998            1.126953 
 400.81             10474.7             10217.97            6934.758            7193.015            7595.875            8498.848            7734.502            256.7344 
 400.71             10573.8             10569.97            6927.686            7218.023            7724.155            8747.147            7663.699            3.831055 
 400.61             10956               10932.35            6920.402            7249.443            7887.513            8970.485            7586.112            23.65332 
 400.51             11232.2             11272.61            6912.34             7288.332            8091.502            9123.236            7506.556           -40.40625 
 400.41             11707.7             11559.62            6903.71             7336.851            8341.21             9163.74             7428.948            148.0811 
 400.31             11565.7             11783.76            6894.113            7396.758            8637.341            9076.803            7355.2             -218.0625 
 400.21             11671.2             11966.23            6884.78             7471.625            8974.796            8886.429            7287.722           -295.0303 
 400.11             12273.9             12133.89            6875.218            7563.328            9332.848            8636.917            7226.448            140.0137 
 400.01             12515.7             12289.18            6864.433            7673.02             9668.821            8370.288            7170.349            226.5205 
 399.91             12626.9             12399.19            6853.143            7803.166            9919.909            8115.762            7119.78             227.7129 
 399.81             12378.7             12411.33            6841.608            7954.605            10018.9             7888.133            7074.514           -32.62988 
 399.71             12168.5             12295.45            6830.547            8126.724            9932.611            7693.065            7034.689           -126.9492 
 399.61             11962.4             12069.31            6819.883            8314.771            9684.41             7530.159            6999.619           -106.9102 
 399.51             11629.9             11783.53            6809.609            8508.796            9338.338            7396.52             6968.703           -153.6289 
 399.41             11639.2             11483.46            6799.98             8692.365            8961.115            7288.3              6941.618            155.7422 
 399.31             11442.4             11186.37            6790.313            8841.143            8598.432            7200.558            6917.174            256.0313 
 399.21             10845.9             10886.02            6781.019            8929.562            8274.563            7129.62             6895.332           -40.11914 
 399.11             10477.8             10568.31            6772.898            8939.039            7998.776            7072.686            6876.5             -90.50684 
