B.E.(eV)           Raw Intensity       Peak Sum            Background          Peak 1              Peak 2              Peak 3              Peak 4              difference
 410.72             7987.95             8015.884            7987.95             7994.203            7993.475            7993.949            7998.108           -27.93359 
 410.62             8121.51             8016.429            7987.95             7994.31             7993.577            7994.067            7998.326            105.0811 
 410.52             8423.65             8016.939            7987.9              7994.369            7993.632            7994.138            7998.5              406.7109 
 410.42             8178.88             8017.354            7987.736            7994.318            7993.577            7994.098            7998.568            161.5259 
 410.32             8476.57             8017.877            7987.664            7994.362            7993.617            7994.155            7998.736            458.6929 
 410.22             8478.91             8018.308            7987.48             7994.296            7993.547            7994.104            7998.8              460.6025 
 410.12             8367.75             8018.755            7987.295            7994.233            7993.48             7994.055            7998.872            348.9946 
 410.02             8261.51             8019.265            7987.152            7994.216            7993.459            7994.052            7998.994            242.2446 
 409.92             8360.9              8019.835            7987.048            7994.241            7993.481            7994.094            7999.164            341.0649 
 409.82             7956.23             8020.39             7986.908            7994.233            7993.469            7994.104            7999.308           -64.16016 
 409.72             8214.7              8021.119            7986.919            7994.38             7993.614            7994.27             7999.612            193.5815 
 409.62             8212.88             8021.774            7986.833            7994.434            7993.665            7994.344            7999.832            191.106 
 409.52             8116.24             8022.455            7986.749            7994.493            7993.722            7994.423            8000.062            93.78564 
 409.42             8183.82             8023.196            7986.7              7994.592            7993.818            7994.545            8000.34             160.624 
 409.32             8434.66             8023.939            7986.625            7994.67             7993.895            7994.647            8000.604            410.7207 
 409.22             8223.03             8024.616            7986.457            7994.658            7993.88             7994.66             8000.788            198.4141 
 409.12             8161.4              8025.402            7986.368            7994.73             7993.952            7994.76             8001.064            135.9976 
 409.02             8464.9              8026.242            7986.302            7994.83             7994.051            7994.889            8001.377            438.6587 
 408.92             7899.51             8026.999            7986.122            7994.82             7994.042            7994.911            8001.591           -127.4893 
 408.82             8416.36             8028.002            7986.154            7995.029            7994.251            7995.152            8002.033            388.3579 
 408.72             8132.72             8028.847            7985.992            7995.049            7994.271            7995.207            8002.296            103.873 
 408.62             8089.26             8029.835            7985.937            7995.181            7994.405            7995.376            8002.684            59.42432 
 408.52             8567.68             8030.878            7985.898            7995.334            7994.562            7995.57             8003.106            536.8013 
 408.42             8337.87             8031.782            7985.679            7995.315            7994.544            7995.593            8003.368            306.0879 
 408.32             8433.59             8032.815            7985.546            7995.387            7994.621            7995.71             8003.736            400.7744 
 408.22             8024.13             8033.858            7985.378            7995.431            7994.669            7995.802            8004.089           -9.728516 
 408.12             8197.71             8035.102            7985.363            7995.635            7994.879            7996.058            8004.619            162.6084 
 408.02             8184.59             8036.33             7985.283            7995.781            7995.032            7996.259            8005.107            148.2603 
 407.92             8444.74             8037.616            7985.208            7995.94             7995.198            7996.477            8005.626            407.124 
 407.82             8175.61             8038.859            7985.035            7996.009            7995.275            7996.607            8006.074            136.7505 
 407.72             8044.17             8040.263            7984.963            7996.187            7995.464            7996.852            8006.651            3.907227 
 407.62             8196.66             8041.778            7984.941            7996.423            7995.712            7997.159            8007.308            154.8823 
 407.52             8176.34             8043.301            7984.862            7996.611            7995.913            7997.423            8007.94             133.0386 
 407.42             8202.37             8044.9              7984.79             7996.815            7996.132            7997.709            8008.613            157.4697 
 407.32             8508.39             8046.563            7984.708            7997.02             7996.353            7998                8009.313            461.8262 
 407.22             8528.79             8048.19             7984.511            7997.121            7996.472            7998.193            8009.936            480.6001 
 407.12             8414.95             8049.891            7984.306            7997.223            7996.596            7998.396            8010.593            365.0596 
 407.02             8587.58             8051.722            7984.144            7997.38             7996.776            7998.66             8011.336            535.8584 
 406.92             8547.62             8053.58             7983.917            7997.485            7996.905            7998.877            8012.062            494.0405 
 406.82             8564.85             8055.552            7983.704            7997.616            7997.065            7999.131            8012.852            509.2974 
 406.72             8526.71             8057.623            7983.485            7997.754            7997.234            7999.4              8013.69             469.0869 
 406.62             8736.85             8059.821            7983.281            7997.921            7997.435            7999.708            8014.6              677.0283 
 406.52             8537.28             8062.06             7982.997            7998.022            7997.575            7999.96             8015.493            475.2207 
 406.42             8808.45             8064.5              7982.789            7998.215            7997.809            8000.315            8016.527            743.9502 
 406.32             8524.97             8066.975            7982.478            7998.321            7997.961            8000.596            8017.53             457.9946 
 406.22             8719.73             8069.704            7982.273            7998.551            7998.242            8001.013            8018.717            650.0269 
 406.12             8741.89             8072.515            7981.996            7998.726            7998.472            8001.39             8019.914            669.3745 
 406.02             8687.67             8075.487            7981.71             7998.911            7998.719            8001.793            8021.193            612.1831 
 405.92             8829.23             8078.657            7981.444            7999.136            7999.011            8002.254            8022.587            750.5732 
 405.82             8791.92             8081.971            7981.125            7999.33             7999.279            8002.701            8024.035            709.9492 
 405.72             8668.29             8085.507            7980.82             7999.561            7999.59             8003.206            8025.61             582.7827 
 405.62             8670.57             8089.316            7980.561            7999.86             7999.979            8003.802            8027.356            581.2544 
 405.52             8259.78             8093.369            7980.301            8000.186            8000.402            8004.448            8029.237            166.4111 
 405.42             8542.73             8097.838            7980.196            8000.691            8001.015            8005.301            8031.418            444.8921 
 405.32             8204.6              8102.491            7979.984            8001.119            8001.562            8006.106            8033.656            102.1084 
 405.22             8284.69             8107.585            7979.899            8001.705            8002.277            8007.102            8036.2              177.105 
 405.12             8475.1              8112.99             7979.785            8002.292            8003.007            8008.135            8038.91             362.1099 
 405.02             8521.04             8118.697            7979.598            8002.842            8003.714            8009.17             8041.765            402.3428 
 404.92             8235.19             8124.797            7979.395            8003.412            8004.456            8010.268            8044.845            110.3936 
 404.82             8231.98             8131.459            7979.298            8004.127            8005.362            8011.562            8048.303            100.521 
 404.72             8453.25             8138.625            7979.203            8004.886            8006.331            8012.951            8052.067            314.6245 
 404.62             8808.06             8146.266            7979.024            8005.606            8007.282            8014.361            8056.091            661.7935 
 404.52             8111.88             8154.398            7978.712            8006.24             8008.171            8015.752            8060.372           -42.51807 
 404.42             8400.27             8163.489            7978.663            8007.188            8009.401            8017.53             8065.358            236.7808 
 404.32             8441.62             8173.262            7978.504            8008.081            8010.606            8019.337            8070.749            268.3584 
 404.22             8370                8183.911            7978.33             8009.018            8011.888            8021.281            8076.713            186.0889 
 404.12             8566.48             8195.6              7978.182            8010.045            8013.298            8023.418            8083.384            370.8809 
 404.02             8437.16             8208.365            7977.96             8011.066            8014.745            8025.668            8090.768            228.7949 
 403.92             8348.74             8222.488            7977.788            8012.21             8016.36             8028.171            8099.11             126.252 
 403.82             8137.26             8238.146            7977.648            8013.466            8018.142            8030.939            8108.544           -100.8867 
 403.72             8298.17             8255.595            7977.588            8014.889            8020.149            8034.042            8119.278            42.5752 
 403.62             8391.62             8274.929            7977.467            8016.343            8022.258            8037.371            8131.358            116.6914 
 403.52             8328.17             8296.445            7977.312            8017.864            8024.51             8040.988            8145.018            31.72461 
 403.42             8467.08             8320.488            7977.179            8019.518            8026.982            8044.989            8160.538            146.5918 
 403.32             8466.6              8347.326            7976.995            8021.239            8029.623            8049.351            8178.098            119.2734 
 403.22             8387.97             8377.355            7976.811            8023.091            8032.51             8054.179            8198.008            10.61426 
 403.12             8589.75             8410.982            7976.656            8025.115            8035.7              8059.566            8220.568            178.7676 
 403.02             8735.79             8448.502            7976.425            8027.219            8039.121            8065.486            8245.951            287.2881 
 402.92             8476.71             8490.338            7976.139            8029.438            8042.832            8072.046            8274.438           -13.62793 
 402.82             8133.94             8537.088            7975.951            8031.944            8047.032            8079.511            8306.454           -403.1479 
 402.72             8630.83             8589.201            7975.891            8034.785            8051.803            8088.041            8342.246            41.62891 
 402.62             8704.88             8646.771            7975.645            8037.667            8056.89             8097.478            8381.669            58.10938 
 402.52             8636.17             8710.34             7975.37             8040.775            8062.524            8108.178            8424.974           -74.16992 
 402.42             8686.84             8780.271            7975.121            8044.187            8068.839            8120.437            8472.172           -93.43066 
 402.32             9017.66             8856.809            7974.854            8047.893            8075.896            8134.535            8523.046            160.8516 
 402.22             8977.83             8939.961            7974.461            8051.821            8083.705            8150.783            8577.035            37.86914 
 402.12             8852.69             9029.845            7974.083            8056.153            8092.551            8169.882            8633.508           -177.1543 
 402.02             8740.83             9126.279            7973.752            8060.968            8102.64             8192.632            8691.297           -385.4492 
 401.92             9293.23             9228.834            7973.463            8066.313            8114.177            8220.065            8748.67             64.39648 
 401.82             9096.34             9336.811            7972.967            8072.005            8127.189            8253.369            8803.146           -240.4707 
 401.72             9692.92             9450                7972.544            8078.4              8142.299            8294.705            8852.227            242.9199 
 401.62             9275.25             9568.018            7971.896            8085.287            8159.656            8346.217            8892.546           -292.7676 
 401.52             9895.8              9692.001            7971.405            8093.152            8180.246            8411.32             8921.499            203.7988 
 401.42             10302.9             9823.648            7970.681            8101.73             8204.498            8493.194            8936.27             479.252 
 401.32             10144               9967.08             7969.803            8111.264            8233.659            8595.991            8935.574            176.9199 
 401.22             10129.3             10128.42            7968.984            8122.16             8269.541            8724.068            8919.604            0.8798828 
 401.12             10306.5             10315.23            7968.171            8134.612            8314.298            8881.193            8889.646           -8.734375 
 401.02             10496.2             10535.78            7967.291            8148.868            8370.814            9069.938            8848.032           -39.5791 
 400.92             11199.3             10797.18            7966.339            8165.329            8442.883            9290.229            8797.757            402.1182 
 400.82             10726.5             11102.47            7965.122            8184.344            8535.054            9536.777            8741.661           -375.9697 
 400.72             11493.8             11446.43            7964.083            8207.037            8653.192            9795.467            8682.978            47.37402 
 400.62             11889.3             11809.48            7962.754            8233.813            8802.67             10037.74            8623.518            79.81738 
 400.52             12308.2             12158.5             7961.275            8265.9              8989.197            10222.09            8565.145            149.6953 
 400.42             12384               12456.33            7959.639            8304.609            9216.844            10304.72            8509.075           -72.33398 
 400.32             12636.4             12682.59            7957.974            8351.678            9486.507            10262.15            8456.185           -46.19434 
 400.22             12842.5             12844.46            7956.212            8408.847            9791.318            10106.06            8406.873           -1.958984 
 400.12             13151               12963.17            7954.373            8478.152            10110.95            9875.821            8361.363            187.835 
 400.02             12891.2             13044.61            7952.417            8561.681            10404.69            9615.85             8319.647           -153.4131 
 399.92             13162.6             13064.55            7950.558            8661.72             10612.86            9359.78             8281.86             98.05273 
 399.82             12833.6             12985.24            7948.596            8780.013            10677.25            9126.153            8247.611           -151.6357 
 399.72             12735.6             12794.63            7946.756            8918.098            10576.63            8923.26             8216.913           -59.0332 
 399.62             12553.7             12525.44            7944.954            9076.18             10342.19            8752.498            8189.427            28.26465 
 399.52             12218.4             12235.14            7943.219            9252.716            10035.19            8611.977            8164.912           -16.73535 
 399.42             11909.7             11972.27            7941.609            9443.016            9712.666            8498.26             8143.156           -62.56934 
 399.32             11907.2             11759.08            7940.115            9637.779            9410.627            8407.154            8123.866            148.1201 
 399.22             11289.2             11592.65            7938.622            9821.314            9146.057            8334.471            8106.67            -303.4453 
